# RotX(deg) RotY(deg) RotZ(deg) RotYY(deg) RotZZ(deg) Distance(A)
-139.126 17.3724 -168.847 17.4896 -156.07 7.19848
-145.781 8.72431 -176.645 10.2695 -154.312 7.27784
-110.59 8.50309 -165.232 4.37162 -156.991 6.93937
-123.101 9.43421 -169.954 7.00843 -157.222 7.01222
-101.904 29.5442 -145.086 11.7423 -154.031 7.12002
-137.99 1.75351 -178.675 10.2892 -156.448 7.16716
-110.522 21.206 -159.792 13.0135 -156.61 7.01283
-121.273 17.7826 -160.633 14.1706 -158.916 7.1298
-148.745 -3.73461 176.556 10.9293 -157.275 7.10421
-179.705 -11.1866 -175.656 10.2651 -157.008 7.32591
-130.897 14.3499 -152.82 13.7126 -148.708 6.80824
-110.256 21.4509 -148.08 10.3146 -150.964 7.08567
-148.66 -7.13809 122.247 3.72344 163.689 7.30112
-142.722 -3.48828 135.667 9.88684 175.381 7.28956
-76.4731 18.3336 156.697 7.76615 148.581 7.19729
-91.7954 23.1686 147.969 9.73465 149.303 7.17306
-117.332 27.918 135.013 20.2232 159.235 7.30673
-159.883 -10.8149 116.473 10.5028 146.012 7.23894
-109.879 17.012 153.358 7.74846 165.999 7.20846
-13.3535 -13.1303 -108.195 9.95209 -143.581 6.87344
-140.748 3.466 -147.52 6.481 -136.291 6.88238
-124.956 16.4628 -162.517 6.38444 -156.781 7.0992
-122.473 7.1601 -170.145 4.69797 -162.598 7.09164
-107.846 17.803 -153.838 10.4745 -154.027 7.31736
-80.9682 24.7293 -133.708 8.51083 -151.622 7.27792
-105.773 20.1203 -158.098 15.9075 -161.752 7.2052
-112.812 17.4829 -123.476 5.7895 -137.914 6.94606
-153.988 -2.9625 179.58 11.1064 -154.338 6.99753
-101.38 19.5939 -163.137 12.7899 -161.996 7.12924
-103.178 28.251 -154.452 13.4971 -158.296 7.11283
-143.256 13.1596 -162.916 17.8349 -152.435 7.22896
-137.976 1.48473 131.844 9.20132 162.891 7.14919
-88.2446 24.3414 169.455 9.28369 168.667 7.20712
-111.753 25.1641 137.907 10.7679 151.806 7.21215
-131.419 -2.01613 137.561 3.08806 165.946 7.22984
-102.522 9.80118 148.938 2.9308 155.594 6.97591
-147.145 -2.50945 120.083 7.38583 168.123 7.15235
-71.2627 22.7067 158.262 7.47245 156.492 7.22798
-99.8306 22.4152 -172.348 8.54221 -166.579 7.30432
-98.9794 23.7456 -160.776 14.047 -159.307 7.26365
-153.063 -2.83933 -177.96 11.3953 -153.402 7.22254
-108.191 18.2961 -157.152 12.73 -153.362 7.2154
-106.591 18.3094 -160.78 12.9003 -151.738 7.15866
-112.348 15.133 -153.357 5.07861 -155.573 7.17033
-148.543 -1.88613 -169.76 10.2045 -152.135 7.06452
-142.504 26.9835 -160.288 19.6478 -152.934 7.00954
-94.1111 26.7694 -143.669 12.7716 -151.501 7.18618
-108.445 9.33943 172.081 3.22895 174.821 7.08337
-108.417 20.017 -163.24 8.10149 -161.406 7.15695
-110.281 27.623 -143.655 10.8729 -151.072 7.23073
-81.0692 31.9924 -149.219 19.8743 -159.003 7.29416
-125.5 16.888 -174.183 11.5297 -161.648 7.23269
-138.745 -7.6864 -173.785 7.63089 -158.877 6.90959
-136.811 12.9626 175.043 14.4196 -173.634 7.06829
-149.485 0.967435 -178.368 11.6401 -158.955 7.18278
-134.963 8.40914 -176.909 3.88493 -167.44 7.18798
-100.446 11.0266 158.588 1.05722 161.344 7.17118
-112.216 18.7115 -147.978 12.2851 -148.694 7.11122
-127.39 10.9864 -156.257 11.068 -149.216 6.95117
-102.583 37.7471 -128.325 13.3587 -149.688 7.18022
-122.279 4.33242 143.651 5.71578 160.735 7.08728
-120.736 -1.61706 127.433 -0.158663 158.228 6.98596
-99.0767 11.6364 149.861 6.24713 158.587 7.0489
-137.665 14.273 115.235 9.24522 141.963 7.12768
-94.7771 16.5612 141.016 9.44257 148.072 7.12364
-112.854 11.7147 142.072 7.49879 150.527 7.02079
-121.107 13.3624 142.358 3.49977 152.702 7.13349
-127.841 25.9994 -139.737 11.4978 -141.134 7.26305
-102.382 26.9418 -157.116 6.56787 -163.923 7.1944
-102.617 13.8243 -167.884 5.4585 -165.959 7.02075
-102.951 19.4472 -153.674 12.0097 -154.967 6.96977
-109.562 25.6736 -151.335 11.4824 -153.836 7.18842
-95.6345 21.0191 -162.989 12.4565 -161.971 7.05375
-173.079 -11.9281 -166.568 8.07574 -147.94 7.00117
-143.8 6.28856 -163.657 7.58277 -150.11 7.21624
-88.1549 21.0277 -143.185 10.8313 -152.562 7.14064
-143.289 0.528291 -165.096 7.40131 -148.611 7.20718
-98.4082 33.2007 -135.289 14.9115 -147.672 7.15453
-137.786 18.3657 -158.592 15.7262 -144.219 7.12251
-119.226 22.4525 -149.378 8.44501 -152.813 7.13038
-117.443 20.7433 -137.564 9.99503 -147.671 7.01075
-109.467 14.7127 -160.573 4.19957 -158.036 7.2477
-126.401 16.3821 -158.321 11.5058 -155.987 6.99162
-138.205 12.1665 -161.61 12.1826 -145.371 7.16871
-118.551 28.996 -148.561 21.6801 -144.917 7.11965
-121.65 17.4204 -178.045 15.5214 -158.566 7.04217
-141.894 3.31531 155.893 8.52017 -166.816 7.36261
-111.796 19.1948 -170.429 15.3042 -162.145 7.05143
-92.5424 34.0135 -134.691 20.1905 -145.941 7.16109
-112.805 33.1538 -153.677 18.5901 -157.574 7.11613
-104.753 16.0059 -159.643 5.79219 -161.521 7.24016
-108.922 19.0887 -170.051 10.0664 -165.692 6.97202
-153.117 -0.270591 155.153 4.86521 167.888 7.2374
-104.022 15.3493 126.372 11.7762 145.187 7.07287
-71.8773 24.3143 174.051 12.4377 156.389 7.19376
-111.01 10.5779 128.553 7.86647 140.573 7.01657
-128.437 5.55904 107.382 11.9632 144.404 6.74601
-147.321 -10.1646 125.714 7.4679 158.14 7.06925
-155.928 -2.33542 129.732 7.7156 158.281 7.14864
-110.566 0.305103 139.007 2.32631 160.701 7.00692
-66.4603 28.3089 151.81 10.8165 150.715 7.07718
-53.4253 13.0971 -179.417 9.03168 158.324 7.2709
-108.839 13.4859 144.539 7.5156 161.287 7.21035
-71.7388 17.7667 163.231 10.3912 158.951 7.19176
-112.015 21.0829 148.262 9.10825 168.493 7.28184
-75.0989 24.0177 147.784 10.541 148.045 7.1579
-103.219 17.8256 160.874 10.8296 162.489 7.22646
-101.392 -0.470343 147.245 -0.45133 159.21 7.12768
-70.8937 35.5312 163.82 18.6839 151.002 7.37699
-102.7 9.72084 131.941 5.44051 146.452 7.03843
-154.968 -3.40381 113.52 12.3795 149.116 7.17184
-150.672 4.94868 125.847 8.80711 150.054 7.08994
-89.508 26.8408 142.998 11.9 144.806 7.06113
-105.305 24.7635 157.624 11.9325 167.875 7.34353
-104.158 20.7203 -145.771 6.40627 -155.116 7.15956
-140.41 5.27853 179.312 11.798 -156.007 7.29599
-104.703 21.7209 -163.43 14.5588 -161.569 6.97308
-155.451 0.00724014 124.286 14.1382 148.317 7.09633
-87.2907 18.6948 150.138 8.75425 157.222 7.11177
-116.655 11.1352 135.752 11.0617 166.494 7.26386
-139.287 9.2644 -161.09 11.1434 -149.716 7.1148
-83.2838 27.059 -124.707 9.76762 -146.413 7.24454
-110.698 16.5045 -146.685 6.46362 -146.933 6.95051
-90.4508 29.3706 -149.485 15.3599 -155.804 7.25776
-96.0837 20.4715 -144.871 7.07243 -153.365 7.21965
-140.681 14.0713 -151.436 14.1641 -140.196 7.14596
-109.585 25.6194 -155.027 17.3305 -153.023 7.29778
-110.848 9.78353 -138.514 5.3955 -142.549 6.82961
-139.128 9.99928 -164.45 12.9368 -147.356 7.12589
-92.2702 28.5121 -150.088 14.9573 -160.935 7.27895
-122.931 27.6077 -134.524 12.6521 -135.941 6.98184
-115.22 5.35999 -167.093 4.80452 -156.998 7.08424
-143.151 -5.58414 -179.782 1.51643 -156.78 7.19256
-145.755 1.41189 159.713 9.5674 -169.458 7.30791
-160.143 2.98182 -169.191 10.667 -152.72 7.20958
-129.664 18.455 -169.932 16.522 -153.44 7.29406
-121.169 14.5146 -160.541 5.69916 -159.902 7.06409
-114.298 19.2552 -160.31 10.3457 -158.699 7.17863
-71.705 32.5442 -118.659 14.8385 -150.655 7.1905
-119.895 12.7828 -156.205 6.17984 -154.356 7.08829
-85.4846 32.0347 146.176 16.6744 146.454 7.17132
-93.4934 24.163 148.802 10.2468 148.721 7.15049
-63.5295 24.0182 174.752 10.3876 159.062 7.21129
-93.4149 26.3699 164.6 9.22556 158.398 7.16876
-114.299 24.8 158.139 13.116 167.446 7.22307
-82.39 18.3328 154.934 9.93074 157.648 7.26258
-75.3396 17.7418 167.091 6.06863 157.27 7.20027
-104.984 22.6224 146.486 15.0285 160.356 7.2244
-77.0588 16.2554 150.757 3.20429 150.486 7.22258
-95.5517 11.0072 142.07 4.88221 152.702 6.96072
-85.7095 33.126 -126.136 18.2088 -145.788 7.19118
-162.907 -7.09049 -165.251 9.97821 -149.206 7.18315
-152.437 6.28969 -151.296 7.9793 -148.25 7.0559
-158.703 2.28927 -176.366 17.072 -157.402 7.12639
-112.067 16.6662 -135.641 6.42908 -143.86 7.21383
-133.345 12.1733 -168.677 6.41126 -151.922 7.17785
-146.922 6.12708 179.264 7.27568 -153.012 7.25952
-124.458 12.7158 -162.506 9.64904 -154.098 7.22819
-122.808 12.2432 -168.46 9.64118 -162.065 7.199
-124.498 17.1776 -163.855 10.6527 -154.329 7.35322
-152.12 7.74988 -177.95 17.56 -150.829 7.17858
-95.516 17.5704 -159.035 6.66611 -159.471 7.14941
-109.96 30.195 -141.826 14.7732 -146.134 7.15375
-145.064 11.7627 -177.874 12.8578 -161.46 7.21617
-99.6036 34.5557 -140.849 17.3639 -148.378 7.13703
-110.143 28.6156 -142.202 14.0352 -149.492 7.12848
-94.6228 20.511 -134.976 9.40149 -144.286 7.05991
-97.0477 19.2561 -148.76 12.2513 -150.404 7.09536
-119.493 17.8417 177.1 9.20559 -175.941 7.28827
-126.864 10.5055 -177.921 10.4159 -155.607 7.16218
-105.288 16.8003 -147.594 10.2693 -148.038 7.15524
-88.7777 18.205 -151.857 9.42734 -158.067 7.11312
-108.861 27.6742 -150.203 9.97246 -154.711 7.31106
-106.139 18.9825 142.083 12.0967 151.209 6.95837
-116.453 3.1778 128.878 2.01884 148.333 6.92811
-117.735 21.2935 -152.776 16.2834 -148.51 7.13492
-97.8431 19.4624 -139.52 7.93519 -152.478 7.18591
-99.2816 15.365 -158.694 6.42073 -159.716 7.09586
-152.383 11.0339 -154.02 18.2699 -141.212 6.97104
-154.888 -14.1819 -161.664 0.30708 -147.364 7.06899
-148.088 14.4316 -170.621 18.5563 -152.659 7.19869
-113.269 31.051 -140.328 13.6412 -146.898 7.05949
-139.358 8.00994 -160.18 9.12253 -150.951 7.13082
-155.568 -7.66282 176.702 5.99613 -156.579 7.22285
-105.6 25.4774 -158.686 14.8187 -160.142 7.09194
-136.539 -0.272708 -170.082 4.96209 -153.525 7.23734
-123.493 21.072 -157.826 11.885 -155.164 7.13825
-135.741 0.13614 -177.472 5.42271 -158.753 7.27355
-112.405 19.8147 -166.615 13.7455 -167.407 7.08247
-106.621 24.8804 -150.451 3.64734 -160.439 7.04604
-112.114 16.0624 -145.255 9.10083 -147.137 7.00239
-160.618 5.25781 -177.35 14.789 -153.649 7.13931
-89.6263 23.51 -144.899 8.99034 -156.918 7.26528
-134.079 23.75 -156.763 17.8015 -145.119 7.21062
-111.995 15.2342 -164.39 9.22514 -154.793 7.0325
-121.864 21.2727 -144.025 7.00118 -150.299 7.07688
-158.337 -11.626 -168.4 7.7255 -146.931 6.99378
-90.3363 32.9109 -117.265 10.7589 -140.95 7.2164
-146.529 -3.45484 171.469 2.53947 -176.293 7.26741
-104.145 16.6938 138.052 7.44215 145.335 7.14567
-115.728 21.5886 -163.326 9.75981 -161.134 7.1375
-95.9709 13.8469 -155.36 2.22386 -155.261 7.2151
-125.017 22.0267 -156.076 11.0125 -151.102 7.18608
-117.97 18.3597 -146.128 9.87767 -146.534 7.04051
-139.391 9.18456 -179.115 16.516 -153.382 7.18103
-125.548 7.12223 -154.177 10.3606 -151.039 6.84456
-93.7892 25.1863 -145.052 12.832 -157.307 7.30668
-107.021 29.6359 -155.004 10.8589 -155.322 7.13524
-94.0995 30.0273 -147.525 13.7737 -151.145 7.18897
-75.2949 13.9867 -133.415 7.11767 -153.839 7.32581
-100.874 7.78225 -156.336 3.03478 -158.654 7.0306
-133.555 27.8754 -153.965 18.6763 -147.923 7.17229
-148.226 16.024 -171.163 17.9677 -152.707 7.18258
-160.521 2.81834 -172.997 14.0888 -156.31 7.12332
-97.2306 26.9151 -157.537 11.297 -163.339 7.15537
-115.898 19.6693 -153.238 1.77974 -158.522 7.06305
-112.806 13.663 -168.768 13.7561 -162.44 7.15625
-102.846 17.07 -150.976 5.39181 -161.077 7.01108
-101.335 22.1903 147.514 6.3233 150.87 7.10288
-114.576 14.4465 178.994 4.88746 -175.235 7.09549
-99.9725 3.09158 162.191 -2.50245 168.654 6.99583
-92.3902 18.0074 128.355 9.43274 134.982 6.99035
-119.693 12.5854 -173.898 11.8533 -162.759 7.17115
-126.607 11.4402 -162.315 5.32843 -157.275 7.05961
-155.374 0.457863 -166.552 7.88444 -150.569 7.22462
-106.192 27.7068 -157.264 12.4302 -158.401 7.02759
-110.405 30.6621 -142.733 17.0006 -153.172 7.20976
-123.088 10.7479 -157.751 8.25149 -148.011 7.05906
-98.1998 30.3574 -152.299 14.5286 -157.312 7.2269
-101.568 25.0371 -141.613 13.3125 -151.749 7.28409
-121.266 23.2301 -167.825 7.75234 -167.81 7.16807
-162.767 -14.1421 -179 8.46137 -155.712 7.3231
-89.4651 28.6802 -148.57 13.0499 -159.523 7.18237
-105.896 20.7698 -140.34 11.5677 -149.862 7.08893
-137.32 14.1154 -178.179 13.3231 -163.466 7.1453
-142.495 4.73277 -166.537 12.3216 -144.143 6.90635
-137.835 2.44652 172.77 5.50757 -169.633 7.21479
-109.292 16.9384 -151.559 2.83573 -152.241 7.16003
-129.862 -0.95499 -162.169 1.50024 -152.175 6.84282
-153.838 -3.51525 168.592 6.54579 -169.157 7.25321
-108.086 17.9354 -159.327 10.9359 -155.52 7.23408
-67.7959 21.389 170.937 13.0837 157.585 7.23111
-112.268 9.08345 158.96 5.19587 174.435 7.03234
-99.5213 16.2784 158.212 6.70553 165.911 7.06389
-121.177 10.6293 135.704 10.3539 153.739 7.00403
-111.517 20.2094 136.303 11.0302 142.087 7.05557
-103.506 23.9308 148.157 8.81073 149.752 7.12661
-96.4384 14.2763 153.83 5.12695 156.346 7.04918
-139.761 4.6485 130.401 10.1041 154.529 7.31563
-104.604 20.4025 141.372 6.33476 143.995 7.05134
-68.8704 28.3043 145.523 18.3926 144.051 7.12247
-70.8449 35.7117 -179.88 20.054 159.083 7.34048
-99.5244 34.8483 -121.488 14.7874 -139.763 7.08307
-109.552 22.4677 -143.011 12.232 -153.776 7.07109
-95.9574 19.0736 -147.26 9.82456 -151.281 6.95987
-104.315 28.7008 -145.485 7.22211 -153.708 7.09181
-146.122 3.76698 -173.237 12.331 -151.216 7.07129
-145.292 -8.57077 174.651 6.48925 -159.617 7.16094
-158.387 -10.6219 175.229 10.0252 -153.473 7.20186
-100.061 21.8717 -149.879 8.94132 -153.7 7.15351
-124.173 6.27081 171.074 1.97455 -179.58 7.18857
-152.366 4.34752 -167.436 11.4906 -151.083 7.29996
-139.497 9.54628 -166.874 10.1872 -153.441 7.14263
-105.953 16.4779 -163.261 3.65321 -164.106 7.09637
-121.994 16.7277 -155.259 10.5755 -151.642 7.1079
-110.515 18.582 -157.993 3.77272 -152.862 7.22067
-92.9108 14.4261 -129.677 7.6777 -142.311 7.28969
-141.373 15.5993 -170.613 14.7155 -150.385 7.19804
-121.09 11.4254 -138.516 4.19503 -141.291 6.93871
-140.605 19.7279 169.171 18.8948 -161.262 7.35896
-149.702 -10.0028 -178.032 1.7882 -155.461 7.08037
-97.3045 33.6446 -148.718 14.5557 -153.76 7.06297
-102.473 19.5255 -146.376 13.4371 -148.313 7.03889
-115.159 6.80079 -154.889 7.38439 -151.061 7.01641
-97.9793 25.5152 -138.687 12.7688 -148.621 7.2432
-136.5 18.753 -154.481 14.6891 -147.081 7.07262
-108.143 5.40765 -170.87 0.21349 -162.093 7.00992
-126.304 8.76701 -174.302 8.8441 -165.25 7.16653
-143.718 6.27152 -174.489 8.77766 -151.449 7.22363
-110.548 26.0672 -141.438 9.38828 -146.781 7.09334
-123.115 17.3963 -156.301 7.74078 -149.132 7.1032
-123.968 11.8947 -162.632 8.76829 -154.715 7.0933
-118.572 18.2947 -162.371 10.2918 -160.909 7.23014
-120.368 17.0563 -166.516 8.15014 -164.453 7.1546
-122.533 19.7224 -160.197 12.4251 -156.961 7.11761
-134.933 -0.0325982 -167.844 1.46244 -154.726 7.03965
-118.143 12.4611 -157.382 4.83468 -157.011 7.19884
-118.024 13.8236 -157.49 6.65771 -154.882 7.05794
-100.132 16.4922 -150.101 6.19135 -150.465 7.23668
-107.384 30.7868 -133.599 16.8469 -146.462 7.17116
-123.673 21.4943 -167.791 4.53979 -159.192 7.16177
-112.763 23.0833 -139.573 11.6506 -141.368 6.84688
-128.41 0.179314 -169.412 0.0916585 -156.81 6.96085
-121.889 10.7959 -146.721 7.03847 -144.198 6.85045
-144.799 3.26282 -173.21 9.06985 -152.785 7.16428
-98.8658 33.4556 -139.701 15.3647 -148.364 7.1712
-124.106 20.6685 -152.002 2.52905 -152.847 7.15993
-113.397 4.12214 -177.716 6.92761 -164.566 7.11217
-102.009 18.7455 -164.141 9.20852 -163.595 7.17871
-105.1 22.9227 -172.184 12.6478 -163.698 7.33975
-91.7146 45.2658 -95.796 21.6386 -129.003 7.00636
-74.3911 25.0254 -121.909 9.73369 -151.391 7.33561
-121.971 3.80611 -177.749 -1.67188 -166.128 6.97014
-99.1281 27.2068 -156.756 11.4005 -157.806 7.23064
-122.165 10.196 -162.857 4.06007 -155.775 7.21668
-141.097 19.0289 -176.307 16.5233 -164.271 7.26514
-111.123 38.0375 -147.054 14.4677 -157.727 7.21664
-98.6035 30.4993 -140.539 14.1811 -152.107 7.30583
-53.0883 14.3505 -102.319 12.3241 -136.136 7.07346
-100.615 25.1793 135.603 12.2781 148.987 7.09807
-110.602 10.5101 -165.04 7.72234 -157.013 7.07527
-139.009 16.047 -162.168 16.0189 -150.644 7.01655
-104.383 16.271 -154.83 10.5162 -153.529 7.03718
-140.942 5.78171 -164.451 8.32696 -150.803 7.32365
-126.839 15.7265 -169.49 10.3143 -156.773 7.24424
-106.049 21.4693 -160.389 6.59057 -158.045 7.16941
-130.657 -7.98465 -165.252 1.58769 -153.049 7.01564
-103.12 17.7767 -162.659 11.6676 -155.876 7.17574
-79.0576 29.5769 -138.198 13.8882 -153.485 7.22339
-123.261 18.5495 -162.841 15.4266 -153.635 7.23758
-111.07 19.6304 -163.795 10.6212 -160.692 7.13587
-106.104 14.9563 -157.952 7.33248 -160.988 7.03738
-159.417 8.92839 -164.465 11.9177 -158.456 7.102
-89.2858 24.8527 -139.155 13.084 -146.947 7.09875
-114.221 11.825 -156.118 7.0725 -153.095 6.99866
-100.996 22.9709 -126.363 8.27396 -143.508 7.12361
-95.9334 26.2379 -160.984 11.6714 -165.197 7.16647
-126.181 14.0384 -161.094 13.9018 -148.832 7.13801
-147.976 -23.71 159.23 -3.28608 -163.415 7.16629
-116.623 12.4192 -161.942 3.28133 -160.574 7.21537
-101.866 32.939 -135.588 13.6974 -149.157 7.22824
-152.139 -15.8653 177.36 8.21843 -149.714 7.122
-87.0765 18.7262 -155.849 8.04673 -155.948 7.20724
-159.343 4.23655 -154.868 11.1594 -139.397 7.19725
-105.445 23.3779 -146.718 5.38867 -152.241 7.12588
-126.329 12.3852 -144.962 4.88851 -143.768 6.94496
-116.688 14.4425 -159.114 9.09636 -156.008 7.22438
-120.166 26.5588 -138.074 14.7389 -141.475 6.90753
-152.038 9.33913 -164.841 18.7162 -145.774 7.19529
-110.459 12.993 -146.368 7.02083 -153.893 7.05795
-112.395 14.4967 -157.517 9.032 -150.384 7.11562
-114.459 19.2774 156.395 8.76769 160.626 7.10887
-97.4855 26.335 165.889 9.08078 162.701 7.32296
-122.06 19.5414 159.506 8.9704 166.617 7.32145
-115.046 15.185 139.784 10.3344 149.504 7.1066
-127.596 9.6407 124.665 4.68747 149.854 7.03382
-151.4 5.9764 141.865 11.1607 159.285 7.21462
-67.6477 29.2844 172.97 19.937 157.318 7.37085
-111.159 15.8314 149.198 5.96862 159.952 7.09658
-118.551 14.2622 140.533 10.7135 158.124 7.25826
-76.4753 15.5855 168.858 5.97692 169.847 7.32671
-139.679 -0.87387 138.351 1.58939 175.49 7.35009
-29.4333 -1.88677 -149.513 2.5784 179.504 7.23925
-116.158 7.39969 127.017 5.02303 145.847 7.01812
-106.162 23.6705 139.201 10.9541 153.317 6.94996
-78.0842 13.9799 165.035 5.43469 160.479 7.16738
-89.8695 20.3722 146.744 14.4096 147.668 7.15968
-130.775 15.5762 138.337 3.49133 152.318 7.12928
-90.1785 19.8973 -174.861 3.52067 177.029 7.08871
-107.131 18.9676 125.867 9.22313 143.886 7.10808
-140.416 -2.93957 125.154 2.5874 158.681 7.31877
-116.465 11.2434 143.952 3.13961 157.301 7.12509
-123.662 25.1779 -139.45 17.2941 -143.57 7.07039
-161.189 -14.1755 -179.455 14.2237 -154.987 6.94553
-125.926 12.6276 -171.693 9.85427 -161.942 7.13039
-137.924 12.4127 172.704 17.0125 -165.693 7.29608
-94.4043 28.7263 -149.411 12.4255 -158.714 7.24062
-149.633 14.3953 -177.004 11.3906 -156.137 7.25158
-171.532 2.13682 -175.736 14.5736 -157.313 7.16979
-148.229 12.1192 -175.816 14.7198 -161.876 7.27617
-141.534 9.64007 -169.884 13.0874 -154.171 7.31399
-109.577 19.6279 -143.456 8.53952 -153.696 7.2005
-123.138 8.76418 173.886 9.97012 -170.549 7.1455
-162.624 -13.3749 -176.028 9.60183 -148.209 7.10153
-102.772 27.1562 -147.098 12.2942 -151.672 7.27732
-108.144 24.2034 -151.25 14.5899 -156.723 7.23549
-116.585 7.27372 -162.027 8.22981 -156.496 7.04441
-119.055 13.3046 -160.866 10.0212 -154.69 6.98995
-123.658 15.412 -165.348 6.95795 -156.216 7.19957
-153.195 -7.85603 173.287 10.8751 -157.635 7.36819
-125.982 21.0907 -169.083 12.583 -165.127 7.14476
-120.879 9.69211 -158.561 6.78513 -154.646 7.03692
-107.518 18.3512 -151.025 4.28036 -159.074 7.20915
-161.585 -0.0312317 -163.596 15.624 -140.823 7.06461
-106.357 7.02404 -172.24 4.07223 -162.426 6.90378
-118.583 28.4874 -155.338 12.6016 -159.131 7.05613
-111.967 14.7421 -150.27 6.22117 -150.869 6.99932
-124.666 26.0792 -165.131 14.126 -159.604 7.31991
-96.788 22.9789 -159.916 9.49422 -163.248 7.21397
-161.058 -24.0924 -160.329 3.73776 -144.106 7.0842
-111.927 6.62611 -161.124 2.48834 -156.653 7.25211
-130.528 -3.1253 -174.033 3.75913 -161.691 7.05996
-129.898 16.843 -152.396 10.3158 -150.702 7.16547
-106.927 30.8489 -164.337 16.6237 -168.838 7.2364
-132.699 5.09288 -155.585 10.1144 -140.771 7.09563
-124.8 13.9432 -140.5 1.36498 -141.914 6.89212
-122.25 9.31426 -154.638 7.0703 -151.82 6.90448
-158.262 -6.49788 177.474 10.7516 -158.909 7.11728
-164.626 -8.48007 -166.204 6.70279 -143.261 7.06676
-104.186 19.6197 -150.77 8.00305 -159.567 7.2217
